\DATE= 'Mon Aug 19 21:12:22 2013'
\APERNAME= 'LL2'
\BUNIT= 'MJy/sr'
\CAL_SET= 'irs_2007_02_12-pb-pfc-trim-omeg-lhbiasfork.cal'
\SOFTWARE= 'CUBISM'
\SOFT_VER= 'v1.50 (June-2007)'
\FILENAME= 'm31_irc_5_ll_ll2_cube__fits__LL2_sp.tbl'
\ COMMENT This file contains a spectral extraction created from
\ COMMENT an IRS spectral mapping dataset.
\ Extraction Area:
\ # Poly: 00:43:38.980,+41:19:31.17 ; 00:43:36.982,+41:19:09.20
\ #       00:43:40.079,+41:18:33.46 ; 00:43:42.077,+41:18:55.42
|   WAVELENGTH    |      FLUX       | FLUX_UNCERTAINTY |
|      real       |      real       |       real       |
|       um        |     MJy/sr      |      MJy/sr      |
         14.26661         0.5980352         0.02811277
         14.35830         0.7296243         0.03031906
         14.45000         0.6945322         0.03047050
         14.54169         0.7343219         0.02771241
         14.63338         0.5371090         0.02915650
         14.72508         0.6737961         0.09226603
         14.81677         0.7537891         0.03417078
         14.90846         0.5878581         0.03185201
         15.00015         0.7062949         0.06956144
         15.09185         0.7729895         0.02560281
         15.18354         0.7850820         0.07717908
         15.27523         0.7822911         0.03838480
         15.36693         0.6115644         0.02680457
         15.45862         0.6715034         0.02637609
         15.55031         0.8452480         0.02612104
         15.64200         0.7164470         0.02497673
         15.73370         0.8463519         0.02592053
         15.82539         0.7067062         0.02719283
         15.91708         0.7676775         0.03235276
         16.00878         0.8086056          0.1416883
         16.10047         0.6801591         0.03610878
         16.19216         0.7299186         0.03213883
         16.28386         0.8503122         0.04270412
         16.37555          1.016799         0.03469788
         16.46724         0.9858981         0.03393343
         16.55893          1.036628         0.03546810
         16.65063         0.9129030         0.03138433
         16.74232         0.9516792         0.06133158
         16.83401         0.9461646         0.03504023
         16.92570          1.179449         0.03383011
         17.01740          1.199019         0.04123862
         17.10909          1.245691         0.03067154
         17.20078          1.081795         0.03031350
         17.29248          1.141447         0.03095630
         17.38417          1.111655         0.03028707
         17.47586         0.9749404         0.03086397
         17.56756         0.8540362         0.03983990
         17.65925         0.7995297         0.04020043
         17.75094         0.8596729         0.03563173
         17.84263         0.7312235          0.1439097
         17.93433         0.8290231         0.04692751
         18.02602         0.7502947         0.03007793
         18.11771         0.5827401         0.08033720
         18.20941         0.7879223         0.03414859
         18.30110         0.7381839         0.03634418
         18.39279         0.7236761         0.02965822
         18.48449         0.8582448         0.07817082
         18.57618         0.8558110         0.03957714
         18.66787         0.8072208         0.03249887
         18.75956         0.8348435         0.03296662
         18.85126         0.6278608         0.09809510
         18.94295         0.7637278         0.03833330
         19.03464         0.7396580         0.03630552
         19.12634         0.6205032         0.04686806
         19.21803         0.6201514         0.04267360
         19.30972         0.6540340         0.04423945
         19.40141         0.6204622         0.04710715
         19.49311         0.6141145         0.09138117
         19.58480         0.8540351         0.07018991
         19.67649         0.7281594         0.05295274
         19.76819         0.6187938         0.05605054
         19.85988         0.3804179         0.05986875
         19.95157         0.7598296         0.04491092
         20.04326         0.7868012         0.04905968
         20.13496         0.5784156         0.04502733
         20.22665         0.4167145         0.05441972
         20.31834         0.6621246         0.04926506
         20.41004         0.5507362         0.04924653
         20.50173         0.5660626         0.05577198
         20.59342         0.5513825         0.04585237
         20.68512         0.7617407         0.05622756
         20.77681         0.7888773         0.05531364
         20.86850         0.5225533         0.05827153
         20.96019         0.3987536         0.05706200
         21.05189         0.5122126         0.05724037
