\DATE= 'Mon Aug 19 21:31:02 2013'
\APERNAME= 'SL2'
\BUNIT= 'MJy/sr'
\CAL_SET= 'irs_2007_02_12-pb-pfc-trim-omeg-lhbiasfork.cal'
\SOFTWARE= 'CUBISM'
\SOFT_VER= 'v1.50 (June-2007)'
\FILENAME= 'm31_irc_8_sl_sl2_cube__fits__SL2_sp.tbl'
\ COMMENT This file contains a spectral extraction created from
\ COMMENT an IRS spectral mapping dataset.
\ Extraction Area:
\ # Poly: 00:42:20.998,+41:07:45.44 ; 00:42:19.016,+41:07:23.36
\ #       00:42:22.119,+41:06:47.79 ; 00:42:24.101,+41:07:09.87
|   WAVELENGTH    |      FLUX       | FLUX_UNCERTAINTY |
|      real       |      real       |       real       |
|       um        |     MJy/sr      |      MJy/sr      |
         5.242817         0.9151549          0.1342248
         5.273802          1.121783          0.1367369
         5.304788          1.063478          0.1140030
         5.335773         0.9483227         0.09523944
         5.366758         0.9099907         0.09145517
         5.397744         0.9591724         0.08716750
         5.428729         0.8563649         0.08344938
         5.459714         0.9666743         0.07600423
         5.490700          1.052413         0.07132998
         5.521685         0.8762367         0.06686603
         5.552670         0.7924659         0.06776243
         5.583656         0.8277316         0.06955873
         5.614641         0.7345049         0.06806934
         5.645627         0.7996366         0.06539272
         5.676612         0.7410612         0.06433712
         5.707598         0.7235467         0.06512398
         5.738583         0.7065483         0.06303148
         5.769568         0.8278186         0.06900997
         5.800553         0.9258230         0.07551158
         5.831539         0.8282116         0.07665326
         5.862525          1.010489         0.08273696
         5.893510         0.6734648         0.08833658
         5.924495         0.5482826         0.09312315
         5.955481         0.7894281         0.09608268
         5.986466         0.6599534         0.09879819
         6.017451         0.9066273         0.09367838
         6.048437         0.8396249         0.09061375
         6.079422         0.7482755         0.08507694
         6.110407         0.6032227         0.07774024
         6.141393         0.6961628         0.07706055
         6.172378         0.7900848         0.07527322
         6.203363         0.6838075         0.07379294
         6.234349         0.8637324         0.06838392
         6.265334         0.7795304         0.06926068
         6.296319         0.7673863         0.07302994
         6.327305         0.6402946         0.07827126
         6.358290         0.6195837         0.07644483
         6.389276         0.8307430         0.08642967
         6.420261         0.5550058         0.08127391
         6.451246         0.6529509         0.07277061
         6.482232         0.7597543         0.07911590
         6.513217         0.6638899         0.08298347
         6.544202         0.5458828         0.09374568
         6.575188         0.6110443          0.1042547
         6.606173         0.4791774          0.1082591
         6.637158         0.6191289          0.1114931
         6.668144         0.6959171          0.1168337
         6.699129         0.7700495          0.1150861
         6.730114         0.6283324          0.1069923
         6.761100         0.4461177          0.1104964
         6.792085         0.4511395          0.1085641
         6.823071         0.6225311          0.1017354
         6.854056         0.4280668         0.09957214
         6.885041         0.3880966         0.09916896
         6.916027         0.6457694         0.09421790
         6.947012         0.6355453          0.1053768
         6.977998         0.5332982         0.09922317
         7.008983         0.3310285          0.1017559
         7.039968         0.4285500          0.1050654
         7.070954         0.5240982         0.09818228
         7.101939         0.7861302         0.09642456
         7.132924         0.7625563         0.09984996
         7.163910         0.5121900          0.1024595
         7.194895         0.6385272          0.1060761
         7.225881         0.5646710          0.1220114
         7.256866         0.7518799          0.1355883
         7.287851         0.8143750          0.1447033
         7.318837         0.3918194          0.1432803
         7.349822         0.5602140          0.1528027
         7.380807         0.6830677          0.1668013
         7.411793         0.4813699          0.1580820
         7.442778         0.3988476          0.1510543
         7.473763         0.7356851          0.1500913
         7.504749          1.039115          0.1489041
         7.535734         0.7308221          0.1573673
         7.566720         0.8210272          0.1521243
         7.597705         0.9069467          0.1707950
