\DATE= 'Thu Nov  7 19:47:30 2013'
\APERNAME= 'SL2'
\BUNIT= 'MJy/sr'
\CAL_SET= 'irs_2008_04_25-pb-pfc-trim-omeg-lhllbiasfork.cal'
\SOFTWARE= 'CUBISM'
\SOFT_VER= 'v1.6 (Nov-2008)'
\FILENAME= 'm31nuc_sl_sl2_cube__fits__SL2_sp.tbl'
\ COMMENT This file contains a spectral extraction created from
\ COMMENT an IRS spectral mapping dataset.
\ Extraction Area:
\ # Poly: 00:42:43.712,+41:16:37.45 ; 00:42:41.722,+41:16:15.41
\ #       00:42:44.825,+41:15:39.77 ; 00:42:46.816,+41:16:01.80
|   WAVELENGTH    |      FLUX       | FLUX_UNCERTAINTY |
|      real       |      real       |       real       |
|       um        |     MJy/sr      |      MJy/sr      |
         5.242817          41.52221          0.4453311
         5.273802          40.99846          0.4739968
         5.304788          41.21280          0.4326875
         5.335773          41.95984          0.4006575
         5.366758          39.48044          0.3742610
         5.397744          39.45059          0.3616858
         5.428729          38.65895          0.3190017
         5.459714          39.40699          0.2840120
         5.490700          38.95831          0.2753769
         5.521685          38.45681          0.2527372
         5.552670          37.99624          0.2503806
         5.583656          37.90407          0.2564502
         5.614641          36.48956          0.2719237
         5.645627          37.73886          0.2523945
         5.676612          37.30225          0.2562425
         5.707598          35.90181          0.2486355
         5.738583          36.40299          0.2581857
         5.769568          36.39095          0.2617077
         5.800553          37.77654          0.2775359
         5.831539          37.52644          0.3006479
         5.862525          37.90412          0.2986004
         5.893510          36.66308          0.3768422
         5.924495          37.62083          0.3491741
         5.955481          36.79401          0.3570161
         5.986466          36.71993          0.3546449
         6.017451          37.13870          0.3545410
         6.048437          36.15304          0.3334974
         6.079422          37.29838          0.2950718
         6.110407          36.99172          0.2656955
         6.141393          36.10265          0.2729395
         6.172378          36.47537          0.2667727
         6.203363          36.48999          0.2647380
         6.234349          36.31698          0.2344232
         6.265334          35.03402          0.2440352
         6.296319          35.62291          0.2273222
         6.327305          34.50026          0.2458187
         6.358290          34.70647          0.2490361
         6.389276          35.16393          0.2788039
         6.420261          33.78542          0.2527251
         6.451246          32.46828          0.2517057
         6.482232          32.88222          0.2550642
         6.513217          32.65166          0.2791212
         6.544202          31.43876          0.3173924
         6.575188          31.94859          0.3455771
         6.606173          31.86843          0.3497488
         6.637158          31.89925          0.3668391
         6.668144          32.25873          0.3597270
         6.699129          30.61446          0.3540597
         6.730114          29.64813          0.3438249
         6.761100          30.88503          0.3420540
         6.792085          30.85859          0.3448281
         6.823071          30.39072          0.3390017
         6.854056          30.17637          0.3492943
         6.885041          29.76853          0.3162528
         6.916027          29.04865          0.3148682
         6.947012          30.24476          0.3094058
         6.977998          28.77495          0.3109711
         7.008983          28.85360          0.3253691
         7.039968          28.74352          0.3256493
         7.070954          27.94989          0.3278948
         7.101939          27.80927          0.3189777
         7.132924          27.68371          0.3120142
         7.163910          28.31057          0.3286088
         7.194895          27.39312          0.3559362
         7.225881          27.51883          0.3791834
         7.256866          26.49781          0.4037752
         7.287851          27.95418          0.4496601
         7.318837          27.47327          0.4677336
         7.349822          26.44741          0.5136413
         7.380807          26.71468          0.5301557
         7.411793          26.23754          0.5079510
         7.442778          24.98494          0.5103189
         7.473763          25.82696          0.5023065
         7.504749          25.41545          0.4925220
         7.535734          25.48709          0.4978997
         7.566720          26.56867          0.4995926
         7.597705          24.61685          0.5574474
